File: Latex/Final_thesis_document/Raw_Data/DMA/DMA0
#Temperature|  Modulus      | Loss Modulus    | Tan Delta
-77.7       |2.553E+08      |2.043E+07        |0.079
-75.1       |2.330E+08      |3.514E+07        |0.1508
-72.8       |2.331E+08      |3.121E+07        |0.1339
-70.8       |2.338E+08      |2.913E+07        |0.1246
-68.9       |2.341E+08      |2.791E+07        |0.1192
-66.8       |2.345E+08      |2.671E+07        |0.1139
-64.9       |2.345E+08      |2.597E+07        |0.1107
-63.3       |2.343E+08      |2.548E+07        |0.1087
-61.7       |2.342E+08      |2.489E+07        |0.1063
-60.0       |2.342E+08      |2.447E+07        |0.1045
-58.5       |2.341E+08      |2.413E+07        |0.1030
-57.0       |2.339E+08      |2.396E+07        |0.1024
-55.7       |2.337E+08      |2.357E+07        |0.1009
-54.5       |2.332E+08      |2.331E+07        |0.0999
-53.2       |2.331E+08      |2.309E+07        |0.0991
-51.9       |2.330E+08      |2.291E+07        |0.0983
-50.7       |2.327E+08      |2.262E+07        |0.0972
-49.5       |2.324E+08      |2.264E+07        |0.0974
-48.3       |2.323E+08      |2.261E+07        |0.0974
-47.2       |2.321E+08      |2.250E+07        |0.0969
-46.0       |2.318E+08      |2.244E+07        |0.0968
-45.1       |2.316E+08      |2.238E+07        |0.0966
-44.1       |2.310E+08      |2.225E+07        |0.0963
-43.2       |2.308E+08      |2.203E+07        |0.0955
-42.2       |2.305E+08      |2.199E+07        |0.0954
-41.3       |2.303E+08      |2.200E+07        |0.0956
-40.3       |2.299E+08      |2.203E+07        |0.0958
-39.3       |2.297E+08      |2.198E+07        |0.0957
-38.6       |2.294E+08      |2.200E+07        |0.0959
-37.7       |2.293E+08      |2.195E+07        |0.0957
-36.9       |2.290E+08      |2.192E+07        |0.0957
-36.0       |2.289E+08      |2.187E+07        |0.0955
-35.2       |2.288E+08      |2.191E+07        |0.0958
-34.4       |2.287E+08      |2.177E+07        |0.0952
-33.6       |2.286E+08      |2.181E+07        |0.0954
-32.9       |2.286E+08      |2.185E+07        |0.0956
-32.2       |2.286E+08      |2.186E+07        |0.0957
-31.5       |2.285E+08      |2.181E+07        |0.0955
-30.7       |2.284E+08      |2.184E+07        |0.0956
-29.9       |2.283E+08      |2.168E+07        |0.0949
-29.4       |2.283E+08      |2.154E+07        |0.0943
-27.6       |2.286E+08      |2.165E+07        |0.0947
-24.3       |2.284E+08      |2.128E+07        |0.0932
-22.1       |2.287E+08      |2.100E+07        |0.0918
-21.2       |2.290E+08      |2.087E+07        |0.0912
-18.5       |2.289E+08      |2.074E+07        |0.0906
-16.3       |2.286E+08      |2.039E+07        |0.0892
-15.1       |2.287E+08      |2.030E+07        |0.0888
-13.0       |2.286E+08      |2.032E+07        |0.0889
-10.7       |2.282E+08      |2.023E+07        |0.0887
-9.4        |2.280E+08      |2.018E+07        |0.0885
-7.7        |2.276E+08      |2.040E+07        |0.0896
-6.0        |2.269E+08      |2.052E+07        |0.0904
-4.6        |2.260E+08      |2.077E+07        |0.0919
-2.8        |2.243E+08      |2.120E+07        |0.0945
-1.2        |2.225E+08      |2.157E+07        |0.0969
0.4         |2.198E+08      |2.219E+07        |0.1010
1.8         |2.165E+08      |2.292E+07        |0.1059
3.3         |2.120E+08      |2.355E+07        |0.1111
4.8         |2.066E+08      |2.422E+07        |0.1172
6.0         |2.011E+08      |2.453E+07        |0.1220
7.4         |1.937E+08      |2.473E+07        |0.1277
9.1         |1.844E+08      |2.469E+07        |0.1339
10.5        |1.758E+08      |2.419E+07        |0.1376
11.9        |1.672E+08      |2.360E+07        |0.1412
13.3        |1.586E+08      |2.257E+07        |0.1423
14.8        |1.506E+08      |2.144E+07        |0.1424
16.2        |1.428E+08      |2.021E+07        |0.1415
17.5        |1.361E+08      |1.893E+07        |0.1391
18.9        |1.289E+08      |1.756E+07        |0.1363
20.4        |1.229E+08      |1.626E+07        |0.1323
21.7        |1.178E+08      |1.523E+07        |0.1292
23.0        |1.130E+08      |1.414E+07        |0.1251
24.5        |1.085E+08      |1.301E+07        |0.1199
26.0        |1.043E+08      |1.209E+07        |0.1159
27.4        |1.006E+08      |1.122E+07        |0.1115
28.9        |9.737E+07      |1.044E+07        |0.1072
30.3        |9.465E+07      |9.849E+06        |0.1041
31.6        |9.200E+07      |9.208E+06        |0.1001
33.0        |8.956E+07      |8.620E+06        |0.0962
34.2        |8.748E+07      |8.119E+06        |0.0928
35.9        |8.517E+07      |7.598E+06        |0.0892
37.3        |8.334E+07      |7.090E+06        |0.0851
38.3        |8.171E+07      |6.673E+06        |0.0817
39.9        |7.996E+07      |6.264E+06        |0.0783
41.5        |7.810E+07      |5.840E+06        |0.0748
42.8        |7.656E+07      |5.439E+06        |0.0710
44.3        |7.489E+07      |5.162E+06        |0.0689
45.7        |7.321E+07      |4.861E+06        |0.0664
46.9        |7.163E+07      |4.615E+06        |0.0644
48.4        |6.982E+07      |4.369E+06        |0.0626
49.7        |6.796E+07      |4.180E+06        |0.0615
51.0        |6.608E+07      |3.992E+06        |0.0604
52.4        |6.408E+07      |3.794E+06        |0.0592
53.8        |6.200E+07      |3.687E+06        |0.0595
55.4        |5.967E+07      |3.551E+06        |0.0595
56.8        |5.766E+07      |3.445E+06        |0.0597
57.9        |5.582E+07      |3.374E+06        |0.0604
59.5        |5.390E+07      |3.290E+06        |0.0610
61.2        |5.167E+07      |3.187E+06        |0.0617
62.3        |5.034E+07      |3.168E+06        |0.0629
63.5        |4.899E+07      |3.073E+06        |0.0627
65.1        |4.736E+07      |3.039E+06        |0.0642
66.4        |4.607E+07      |2.977E+06        |0.0646
67.7        |4.495E+07      |2.947E+06        |0.0656
69.0        |4.369E+07      |2.930E+06        |0.0671