File: Latex/Final_thesis_document/Raw_Data/DMA/DMA1
#Temperature   |Modulus       |Loss Modulus    |Tan Delta
-80.9          |2.560E+08     |9.050E+06       |0.0353
-78.8          |2.563E+08     |8.219E+06       |0.0321
-76.4          |2.505E+08     |7.976E+06       |0.0318
-73.4          |2.495E+08     |7.705E+06       |0.0309
-71.0          |2.485E+08     |7.676E+06       |0.0309
-68.3          |2.488E+08     |7.632E+06       |0.0307
-66.0          |2.487E+08     |7.758E+06       |0.0312
-63.7          |2.469E+08     |7.553E+06       |0.0306
-61.2          |2.465E+08     |7.625E+06       |0.0309
-59.0          |2.455E+08     |7.231E+06       |0.0295
-56.8          |2.450E+08     |7.385E+06       |0.0301
-54.8          |2.442E+08     |7.461E+06       |0.0306
-52.9          |2.431E+08     |7.349E+06       |0.0302
-51.0          |2.428E+08     |7.377E+06       |0.0304
-49.3          |2.434E+08     |7.842E+06       |0.0322
-47.6          |2.420E+08     |7.734E+06       |0.0320
-46.1          |2.416E+08     |7.892E+06       |0.0327
-44.7          |2.427E+08     |7.661E+06       |0.0316
-43.1          |2.408E+08     |7.789E+06       |0.0323
-41.8          |2.405E+08     |7.967E+06       |0.0331
-40.4          |2.414E+08     |7.967E+06       |0.0330
-39.1          |2.397E+08     |8.441E+06       |0.0352
-38.0          |2.409E+08     |8.236E+06       |0.0342
-36.7          |2.403E+08     |8.749E+06       |0.0364
-35.5          |2.405E+08     |8.481E+06       |0.0353
-34.4          |2.409E+08     |9.097E+06       |0.0378
-33.3          |2.398E+08     |8.860E+06       |0.0369
-32.1          |2.405E+08     |8.913E+06       |0.0371
-31.1          |2.400E+08     |9.039E+06       |0.0377
-30.1          |2.410E+08     |9.283E+06       |0.0385
-29.3          |2.384E+08     |9.360E+06       |0.0393
-28.3          |2.380E+08     |9.511E+06       |0.0400
-27.4          |2.379E+08     |9.452E+06       |0.0397
-26.5          |2.389E+08     |9.503E+06       |0.0398
-25.6          |2.374E+08     |9.411E+06       |0.0396
-24.7          |2.382E+08     |9.710E+06       |0.0408
-23.9          |2.376E+08     |9.840E+06       |0.0414
-23.1          |2.366E+08     |9.824E+06       |0.0415
-22.4          |2.373E+08     |1.008E+07       |0.0425
-21.6          |2.377E+08     |1.020E+07       |0.0429
-21.0          |2.360E+08     |1.017E+07       |0.0431
-20.2          |2.360E+08     |1.012E+07       |0.0429
-19.5          |2.356E+08     |1.039E+07       |0.0441
-18.7          |2.347E+08     |1.040E+07       |0.0443
-18.1          |2.346E+08     |1.070E+07       |0.0456
-17.4          |2.345E+08     |1.064E+07       |0.0454
-16.9          |2.336E+08     |1.090E+07       |0.0467
-16.2          |2.336E+08     |1.080E+07       |0.0462
-15.6          |2.332E+08     |1.090E+07       |0.0467
-15.0          |2.324E+08     |1.126E+07       |0.0484
-14.4          |2.323E+08     |1.124E+07       |0.0484
-13.8          |2.318E+08     |1.115E+07       |0.0481
-13.3          |2.315E+08     |1.149E+07       |0.0496
-12.5          |2.305E+08     |1.159E+07       |0.0503
-9.4           |2.283E+08     |1.218E+07       |0.0534
-6.6           |2.257E+08     |1.294E+07       |0.0573
-5.3           |2.249E+08     |1.366E+07       |0.0607
-3.2           |2.207E+08     |1.464E+07       |0.0663
-0.6           |2.149E+08     |1.663E+07       |0.0774
1.1            |2.109E+08     |1.794E+07       |0.0851
2.3            |2.053E+08     |1.933E+07       |0.0942
4.3            |1.960E+08     |2.110E+07       |0.1077
6.3            |1.866E+08     |2.233E+07       |0.1197
7.8            |1.777E+08     |2.300E+07       |0.1294
9.3            |1.682E+08     |2.305E+07       |0.1371
11.2           |1.564E+08     |2.241E+07       |0.1433
12.9           |1.475E+08     |2.149E+07       |0.1457
14.1           |1.403E+08     |2.060E+07       |0.1468
15.8           |1.313E+08     |1.902E+07       |0.1448
17.5           |1.236E+08     |1.747E+07       |0.1413
18.9           |1.175E+08     |1.625E+07       |0.1383
20.3           |1.117E+08     |1.503E+07       |0.1346
22.0           |1.060E+08     |1.364E+07       |0.1287
23.5           |1.015E+08     |1.264E+07       |0.1246
25.0           |9.728E+07     |1.158E+07       |0.1191
26.5           |9.354E+07     |1.068E+07       |0.1141
28.1           |9.007E+07     |9.814E+06       |0.1090
29.6           |8.715E+07     |9.138E+06       |0.1048
31.0           |8.473E+07     |8.548E+06       |0.1009
32.4           |8.240E+07     |7.977E+06       |0.0968
34.0           |7.988E+07     |7.366E+06       |0.0922
35.3           |7.813E+07     |6.966E+06       |0.0892
36.8           |7.629E+07     |6.454E+06       |0.0846
38.1           |7.466E+07     |6.092E+06       |0.0816
39.6           |7.300E+07     |5.701E+06       |0.0781
41.1           |7.137E+07     |5.360E+06       |0.0751
42.3           |6.986E+07     |5.059E+06       |0.0724
43.9           |6.811E+07     |4.725E+06       |0.0694
45.4           |6.642E+07     |4.473E+06       |0.0673
46.6           |6.492E+07     |4.301E+06       |0.0662
48.0           |6.312E+07     |4.108E+06       |0.0651
49.5           |6.122E+07     |3.939E+06       |0.0643
51.0           |5.914E+07     |3.725E+06       |0.0630
52.3           |5.729E+07     |3.614E+06       |0.0631
53.6           |5.545E+07     |3.475E+06       |0.0627
55.2           |5.339E+07     |3.354E+06       |0.0628
56.4           |5.173E+07     |3.279E+06       |0.0634
57.7           |4.999E+07     |3.225E+06       |0.0645
59.3           |4.829E+07     |3.138E+06       |0.0650
60.8           |4.667E+07     |3.080E+06       |0.0660
62.2           |4.510E+07     |3.024E+06       |0.0670
63.4           |4.392E+07     |2.982E+06       |0.0679
64.8           |4.266E+07     |2.944E+06       |0.0690
66.1           |4.134E+07     |2.881E+06       |0.0697
67.7           |4.003E+07     |2.877E+06       |0.0719